timestamps,TP9,AF7,AF8,TP10,Right AUX
1729781595.887,73.730,-20.508,-122.070,22.949,0.000
1729781595.891,26.855,-23.438,-244.141,-49.316,0.000
1729781595.895,127.441,-19.043,-252.441,3.418,0.000
1729781595.899,230.469,-19.531,-7.324,102.051,0.000
1729781595.902,196.777,-22.461,123.047,123.047,0.000
1729781595.906,61.523,-22.949,-90.820,29.785,0.000
1729781595.910,-10.742,-27.832,-394.043,-68.359,0.000
1729781595.914,76.172,-30.762,-181.152,-59.570,0.000
1729781595.918,195.312,-26.855,18.066,53.223,0.000
1729781595.922,198.242,-24.414,-182.617,108.887,0.000
1729781595.926,87.402,-28.809,-204.590,20.020,0.000
1729781595.930,14.648,-30.273,-130.371,-84.473,0.000
1729781595.934,73.242,-32.715,-39.062,-69.824,0.000
1729781595.938,176.270,-32.227,-64.453,39.551,0.000
1729781595.941,193.359,-23.926,-127.441,101.562,0.000
1729781595.945,95.215,-29.785,28.320,24.902,0.000
1729781595.949,7.324,-38.086,-5.371,-99.609,0.000
1729781595.953,49.316,-37.598,-247.070,-92.285,0.000
1729781595.957,159.180,-34.668,-164.062,23.926,0.000
1729781595.961,199.219,-41.504,85.938,75.684,0.000
1729781595.965,106.934,-46.875,46.875,11.230,0.000
1729781595.969,-1.953,-46.387,-111.816,-85.449,0.000
1729781595.973,37.598,-47.363,-221.680,-88.867,0.000
1729781595.977,148.926,-45.898,-183.105,0.488,0.000
1729781595.981,185.059,-49.805,-132.324,66.406,0.000
1729781595.984,93.262,-53.223,-230.957,32.227,0.000
1729781595.988,-8.301,-50.781,-80.566,-82.520,0.000
1729781595.992,8.789,-53.711,57.129,-128.906,0.000
1729781595.996,121.094,-54.688,16.602,-35.645,0.000
1729781596.000,179.199,-57.617,-186.035,72.754,0.000
1729781596.004,100.586,-54.688,-175.781,45.410,0.000
1729781596.008,6.348,-48.340,61.523,-65.430,0.000
1729781596.012,4.395,-59.082,-29.785,-99.609,0.000
1729781596.016,98.145,-58.105,-317.871,-32.715,0.000
1729781596.020,168.945,-54.199,-107.422,32.227,0.000
1729781596.024,103.027,-65.430,104.492,20.996,0.000
1729781596.027,-8.789,-65.430,-44.922,-75.684,0.000
1729781596.031,-45.898,-62.500,-181.152,-140.137,0.000
1729781596.035,41.504,-61.035,-168.457,-84.961,0.000
1729781596.039,132.812,-62.012,13.184,10.254,0.000
1729781596.043,78.613,-61.035,1.953,17.578,0.000
1729781596.047,-37.598,-54.688,-223.633,-74.707,0.000
1729781596.051,-68.359,-55.176,-213.379,-146.484,0.000
1729781596.055,30.273,-49.805,-2.441,-96.191,0.000
1729781596.059,131.348,-45.410,-99.121,20.996,0.000
1729781596.063,102.051,-46.875,-163.086,50.781,0.000
1729781596.067,-5.371,-39.551,68.848,-34.180,0.000
1729781596.070,-57.617,-38.574,97.656,-118.652,0.000
1729781596.074,12.695,-46.875,-96.680,-91.797,0.000
1729781596.078,123.535,-47.363,-136.719,20.508,0.000
1729781596.082,121.094,-42.480,84.961,56.152,0.000
1729781596.086,0.000,-46.875,76.172,-20.996,0.000
1729781596.090,-74.219,-54.199,-120.117,-102.539,0.000
1729781596.094,-3.906,-57.617,-209.473,-96.680,0.000
1729781596.098,119.629,-50.781,-115.234,0.488,0.000
1729781596.102,129.395,-49.805,-7.812,61.523,0.000
1729781596.106,11.230,-56.152,-275.879,16.602,0.000
1729781596.109,-67.383,-55.176,-72.266,-97.168,0.000
1729781596.113,-17.578,-52.734,176.270,-109.375,0.000
1729781596.117,97.656,-45.898,33.691,1.465,0.000
1729781596.121,125.488,-45.410,23.926,67.383,0.000
1729781596.125,28.320,-48.340,52.246,11.230,0.000
1729781596.129,-56.641,-39.062,73.730,-83.008,0.000
1729781596.133,-24.414,-44.434,-38.086,-93.750,0.000
1729781596.137,87.402,-51.758,-124.512,-13.184,0.000
1729781596.141,126.953,-45.898,-123.535,65.918,0.000
1729781596.145,42.969,-46.875,-149.414,33.691,0.000
1729781596.149,-63.965,-50.781,-246.582,-69.336,0.000
1729781596.152,-57.129,-49.805,-194.824,-107.422,0.000
1729781596.156,67.871,-45.410,104.492,-31.738,0.000
1729781596.160,131.348,-46.875,112.793,62.988,0.000
1729781596.164,49.805,-50.781,-15.137,40.527,0.000
1729781596.168,-64.453,-50.293,4.395,-74.707,0.000
1729781596.172,-68.848,-51.270,-31.738,-121.094,0.000
1729781596.176,40.039,-49.316,20.508,-36.621,0.000
1729781596.180,113.770,-49.316,18.066,67.871,0.000
1729781596.184,55.664,-47.363,58.105,54.688,0.000
1729781596.188,-67.871,-47.363,27.344,-54.688,0.000
1729781596.192,-94.238,-55.664,-182.129,-118.164,0.000
1729781596.195,-4.883,-61.035,-291.992,-43.945,0.000
1729781596.199,85.938,-52.246,24.414,59.082,0.000
1729781596.203,61.523,-49.316,92.285,64.453,0.000
1729781596.207,-61.523,-51.270,-74.219,-39.551,0.000
1729781596.211,-103.516,-52.734,-28.320,-125.488,0.000
1729781596.215,0.000,-54.199,0.000,-75.684,0.000
1729781596.219,0.000,-51.758,0.000,40.039,0.000
1729781596.223,0.000,-52.734,0.000,75.684,0.000
1729781596.227,0.000,-50.781,0.000,-19.531,0.000
1729781596.231,0.000,-44.922,0.000,-114.746,0.000
1729781596.234,0.000,-43.945,0.000,-86.914,0.000
1729781596.238,0.000,-46.387,0.000,30.273,0.000
1729781596.242,0.000,-45.898,0.000,77.148,0.000
1729781596.246,0.000,-50.293,0.000,-18.555,0.000
1729781596.250,0.000,-52.246,0.000,-108.398,0.000
1729781596.254,0.000,-48.828,0.000,-89.355,0.000
1729781596.258,0.000,-48.340,0.000,13.184,0.000
1729781596.262,79.590,-51.270,31.250,76.172,0.000
1729781596.266,-27.832,-51.758,-17.090,8.789,0.000
1729781596.270,-106.934,-53.711,-119.141,-97.656,0.000
1729781596.274,-45.898,-54.688,19.043,-97.656,0.000
1729781596.277,65.430,-57.617,128.906,3.418,0.000
1729781596.281,73.730,-57.617,54.199,84.473,0.000
1729781596.285,-37.598,-56.641,-159.668,36.133,0.000
1729781596.289,-122.070,-51.758,-10.254,-83.984,0.000
1729781596.293,-79.102,-58.594,149.414,-112.793,0.000
1729781596.297,35.156,-62.500,74.219,-22.949,0.000
1729781596.301,74.219,-56.641,52.734,63.965,0.000
1729781596.305,-27.832,-56.152,48.340,29.785,0.000
1729781596.309,-135.254,-59.570,74.707,-82.520,0.000
1729781596.313,-114.258,-54.688,62.988,-115.234,0.000
1729781596.317,0.488,-53.711,38.086,-18.066,0.000
1729781596.320,77.148,-52.246,122.070,76.660,0.000
1729781596.324,-2.441,-50.781,151.855,41.992,0.000
1729781596.328,-129.395,-58.105,-48.340,-66.406,0.000
1729781596.332,-120.605,-56.152,-83.008,-116.211,0.000
1729781596.336,1.465,-58.105,178.223,-55.176,0.000
1729781596.340,72.266,-61.523,187.500,46.875,0.000
1729781596.344,0.000,-54.688,48.340,45.898,0.000
1729781596.348,-111.328,-49.805,62.500,-62.988,0.000
1729781596.352,-123.535,-52.734,144.043,-118.652,0.000
1729781596.356,-17.090,-48.828,0.000,-42.969,0.000
1729781596.360,71.777,-41.504,0.000,59.570,0.000
1729781596.363,28.809,-43.457,0.000,63.477,0.000
1729781596.367,-90.332,-52.246,0.000,-27.344,0.000
1729781596.371,-120.117,-55.664,0.000,-98.145,0.000
1729781596.375,-25.879,-52.246,0.000,-48.340,0.000
1729781596.379,63.477,-47.363,0.000,56.641,0.000
1729781596.383,39.551,-42.480,0.000,76.172,0.000
1729781596.387,-90.820,-48.340,0.000,-20.508,0.000
1729781596.391,-153.320,-50.293,0.000,-94.727,0.000
1729781596.395,-50.293,-41.504,0.000,-61.523,0.000
1729781596.399,48.340,-51.270,0.000,34.668,0.000
1729781596.403,27.344,-59.570,98.633,76.660,0.000
1729781596.406,-86.914,-55.664,106.445,-0.977,0.000
1729781596.410,-143.066,-53.223,94.238,-102.539,0.000
1729781596.414,-56.641,-50.293,94.727,-86.426,0.000
1729781596.418,57.617,-50.781,44.922,29.297,0.000
1729781596.422,56.152,-48.828,11.719,94.727,0.000
1729781596.426,-55.176,-45.898,44.922,18.555,0.000
1729781596.430,-123.047,-45.410,96.680,-86.426,0.000
1729781596.434,-70.312,-46.387,-16.113,-71.289,0.000
1729781596.438,32.227,-48.828,-76.660,30.273,0.000
1729781596.442,64.941,-45.410,136.230,88.379,0.000
1729781596.445,-33.691,-47.852,124.512,31.250,0.000
1729781596.449,-136.230,-53.223,-46.387,-91.309,0.000
1729781596.453,-98.633,-51.270,-14.648,-116.211,0.000
1729781596.457,27.832,-47.363,137.695,-8.789,0.000
1729781596.461,61.523,-51.758,114.258,75.195,0.000
1729781596.465,-35.645,-56.152,11.230,26.367,0.000
1729781596.469,-139.648,-52.734,-6.836,-76.172,0.000
1729781596.473,-112.793,-49.316,50.781,-98.145,0.000
1729781596.477,14.160,-45.898,72.266,-16.602,0.000
1729781596.481,56.641,-44.922,-171.875,75.684,0.000
1729781596.485,-16.602,-40.527,1.465,41.992,0.000
1729781596.488,-107.422,-41.016,108.398,-70.801,0.000
1729781596.492,-112.305,-42.969,11.719,-116.211,0.000
1729781596.496,-16.602,-45.410,63.965,-42.969,0.000
1729781596.500,60.547,-49.316,134.766,61.035,0.000
1729781596.504,1.953,-43.945,138.672,64.941,0.000
1729781596.508,-123.535,-41.016,14.648,-45.410,0.000
1729781596.512,-141.113,-39.551,-14.160,-111.328,0.000
1729781596.516,-22.461,-39.062,27.344,-27.344,0.000
1729781596.520,70.312,-40.039,65.430,79.590,0.000
1729781596.524,11.719,-43.457,-6.348,90.820,0.000
1729781596.528,-104.980,-41.504,-83.496,-5.371,0.000
1729781596.531,-123.535,-35.645,108.398,-91.797,0.000
1729781596.535,-41.504,-35.645,115.723,-51.270,0.000
1729781596.539,36.133,-38.086,26.367,48.340,0.000
1729781596.543,10.254,-37.109,28.320,63.965,0.000
1729781596.547,-98.633,-35.645,26.367,-24.414,0.000
1729781596.551,-155.762,-39.062,-37.598,-110.840,0.000
1729781596.555,-76.660,-35.156,-28.809,-77.637,0.000
1729781596.559,31.250,-34.668,105.469,39.062,0.000
1729781596.563,9.766,-43.457,100.586,80.566,0.000
1729781596.567,-111.816,-43.945,-37.109,-12.207,0.000
1729781596.570,-179.688,-43.457,-303.711,-104.004,0.000
1729781596.574,-103.027,-37.109,-52.734,-91.309,0.000
1729781596.578,13.184,-28.320,185.547,17.578,0.000
1729781596.582,16.113,-28.809,53.223,77.637,0.000
1729781596.586,-97.656,-38.086,-6.836,-0.488,0.000
1729781596.590,-179.199,-40.039,52.246,-100.098,0.000
1729781596.594,-107.422,-36.133,79.102,-94.727,0.000
1729781596.598,14.160,-37.598,-17.090,19.531,0.000
1729781596.602,31.250,-41.992,-49.316,86.426,0.000
1729781596.606,-60.547,-32.227,86.914,11.230,0.000
1729781596.610,-148.926,-24.902,-39.551,-81.543,0.000
1729781596.613,-109.375,-34.180,-261.719,-75.684,0.000
1729781596.617,18.555,-36.621,-181.641,19.531,0.000
1729781596.621,75.195,-27.832,107.422,81.055,0.000
1729781596.625,-20.020,-30.273,127.441,23.926,0.000
1729781596.629,-130.371,-32.227,-39.062,-88.379,0.000
1729781596.633,-106.445,-34.180,-3.418,-119.629,0.000
1729781596.637,8.301,-41.504,89.844,-29.297,0.000
1729781596.641,67.383,-39.062,-20.508,73.730,0.000
1729781596.645,-6.836,-32.227,-144.531,38.574,0.000
1729781596.649,-104.980,-30.273,-28.809,-74.219,0.000
1729781596.653,-95.215,-31.738,40.039,-105.469,0.000
1729781596.656,20.020,-29.785,-149.902,-12.695,0.000
1729781596.660,80.078,-34.180,-365.234,90.332,0.000
1729781596.664,15.137,-35.156,-171.387,57.617,0.000
1729781596.668,-94.727,-35.156,116.699,-53.711,0.000
1729781596.672,-105.469,-42.480,-57.129,-106.934,0.000
1729781596.676,10.254,-35.645,-156.738,-39.062,0.000
1729781596.680,96.191,-30.273,69.824,72.266,0.000
1729781596.684,40.039,-32.227,130.859,75.195,0.000
1729781596.688,-83.496,-29.785,-38.086,-25.391,0.000
1729781596.692,-99.121,-34.668,-113.281,-91.797,0.000
1729781596.695,11.230,-38.086,31.738,-31.250,0.000
1729781596.699,103.516,-33.691,96.680,78.125,0.000
1729781596.703,75.684,-32.715,-141.602,94.727,0.000
1729781596.707,-46.875,-30.762,-153.809,-9.766,0.000
1729781596.711,-90.820,-34.668,100.098,-110.352,0.000
1729781596.715,-0.977,-40.527,14.160,-64.453,0.000
1729781596.719,90.332,-35.645,-17.578,52.734,0.000
1729781596.723,81.055,-32.715,82.520,83.008,0.000
1729781596.727,-30.762,-34.668,104.004,-10.742,0.000
1729781596.731,-93.750,-34.668,-33.203,-98.145,0.000
1729781596.735,-19.043,-33.203,-185.059,-56.152,0.000
1729781596.738,82.031,-35.645,12.695,47.852,0.000
1729781596.742,96.680,-32.715,146.484,79.590,0.000
1729781596.746,-12.207,-31.250,41.504,11.230,0.000
1729781596.750,-99.609,-37.598,-269.531,-74.707,0.000
1729781596.754,-29.785,-33.691,-194.336,-82.031,0.000
1729781596.758,89.844,-34.180,124.023,12.207,0.000
1729781596.762,101.562,-38.574,79.102,86.426,0.000
1729781596.766,-3.906,-33.203,-231.445,34.180,0.000
1729781596.770,-80.078,-32.715,-203.613,-84.473,0.000
1729781596.774,-29.785,-42.480,-9.277,-101.562,0.000
1729781596.778,83.008,-42.969,-2.441,4.883,0.000
1729781596.781,114.258,-34.668,15.625,88.867,0.000
1729781596.785,15.625,-30.762,154.297,42.969,0.000
1729781596.789,-87.402,-34.180,141.602,-69.824,0.000
1729781596.793,-63.965,-37.109,9.766,-98.145,0.000
1729781596.797,52.246,-37.109,-57.129,3.418,0.000
1729781596.801,105.957,-44.434,48.340,85.449,0.000
1729781596.805,20.508,-44.434,114.746,38.086,0.000
1729781596.809,-91.309,-45.898,-80.078,-55.176,0.000
1729781596.813,-85.938,-45.898,-136.719,-90.332,0.000
1729781596.817,41.504,-39.062,101.074,-17.090,0.000
1729781596.821,103.516,-37.598,152.832,88.867,0.000
1729781596.824,0.000,-45.410,-10.742,63.477,0.000
1729781596.828,0.000,-48.828,-139.648,-57.129,0.000
1729781596.832,0.000,-47.852,-108.398,-113.281,0.000
1729781596.836,0.000,-45.898,39.551,-35.645,0.000
1729781596.840,0.000,-48.828,37.109,66.406,0.000
1729781596.844,0.000,-44.434,-5.859,57.617,0.000
1729781596.848,0.000,-41.992,58.594,-48.828,0.000
1729781596.852,0.000,-47.363,49.316,-116.211,0.000
1729781596.856,0.000,-44.922,-223.633,-45.898,0.000
1729781596.860,0.000,-35.645,-20.508,55.664,0.000
1729781596.863,0.000,-38.086,172.852,62.012,0.000
1729781596.867,0.000,-46.875,42.480,-25.879,0.000
1729781596.871,-107.422,-50.293,-22.949,-106.445,0.000
1729781596.875,-14.648,-51.758,89.355,-68.848,0.000
1729781596.879,87.891,-46.875,139.160,47.852,0.000
1729781596.883,52.246,-50.781,-14.160,85.449,0.000
1729781596.887,-60.059,-51.758,-73.242,3.418,0.000
1729781596.891,-103.027,-42.969,-160.156,-76.660,0.000
1729781596.895,-16.602,-35.645,-181.641,-50.293,0.000
1729781596.899,82.520,-41.992,-92.773,52.246,0.000
1729781596.903,72.266,-40.527,-36.621,103.516,0.000
1729781596.906,-38.086,-35.645,73.242,23.438,0.000
1729781596.910,-117.188,-41.504,69.824,-86.426,0.000
1729781596.914,-67.383,-43.457,-98.145,-54.688,0.000
1729781596.918,46.875,-42.480,-161.621,67.871,0.000
1729781596.922,72.754,-37.598,-4.883,124.023,0.000
1729781596.926,-35.645,-33.691,35.156,49.316,0.000
1729781596.930,-119.629,-31.738,-101.562,-38.574,0.000
1729781596.934,-59.570,-30.762,-13.672,-34.180,0.000
1729781596.938,43.457,-41.992,3.418,62.500,0.000
1729781596.942,67.871,-41.504,-121.582,154.785,0.000
1729781596.946,-25.879,-35.645,-257.812,122.070,0.000
1729781596.949,-107.910,-38.086,-1.953,-3.906,0.000
1729781596.953,-59.570,-38.086,180.664,-26.367,0.000
1729781596.957,51.758,-29.785,62.012,87.891,0.000
1729781596.961,99.121,-21.973,72.266,163.086,0.000
1729781596.965,22.949,-28.809,133.301,111.816,0.000
1729781596.969,-76.172,-28.809,130.371,10.742,0.000
1729781596.973,-76.660,-27.832,5.371,-39.062,0.000
1729781596.977,31.250,-30.273,-10.742,29.297,0.000
1729781596.981,95.215,-30.273,127.930,135.742,0.000
1729781596.985,22.461,-30.273,76.660,104.492,0.000
1729781596.989,-90.820,-32.715,-157.715,-20.996,0.000
1729781596.992,-106.934,-38.086,-192.383,-72.754,0.000
1729781596.996,6.348,-40.039,69.824,-14.160,0.000
1729781597.000,92.773,-34.668,130.859,84.473,0.000
1729781597.004,32.227,-38.086,38.086,83.008,0.000
1729781597.008,-82.520,-41.016,48.340,-34.180,0.000
1729781597.012,-106.445,-38.086,44.922,-90.332,0.000
1729781597.016,-14.160,-44.922,-126.953,-19.531,0.000
1729781597.020,79.102,-50.781,-125.488,76.660,0.000
1729781597.024,52.734,-40.527,54.688,86.914,0.000
1729781597.028,-61.523,-36.133,83.984,-20.996,0.000
1729781597.031,-104.492,-48.828,-155.273,-103.027,0.000
1729781597.035,-23.438,-45.410,-354.980,-57.129,0.000
1729781597.039,85.449,-32.227,-55.176,38.086,0.000
1729781597.043,68.848,-41.016,152.832,61.035,0.000
1729781597.047,-58.594,-48.340,23.438,-25.391,0.000
1729781597.051,-114.258,-47.363,-137.695,-112.793,0.000
1729781597.055,-27.832,-39.551,-165.039,-81.055,0.000
1729781597.059,88.379,-32.715,0.488,28.809,0.000
1729781597.063,102.539,-31.250,69.336,83.984,0.000
1729781597.067,-4.883,-34.180,63.965,18.066,0.000
1729781597.071,-95.703,-52.246,75.684,-96.191,0.000
1729781597.074,-41.504,-56.641,81.543,-105.469,0.000
1729781597.078,63.965,-48.828,-95.703,18.066,0.000
1729781597.082,58.594,-53.223,-125.488,78.613,0.000
1729781597.086,-42.969,-52.246,119.629,0.488,0.000
1729781597.090,-125.977,-45.898,92.773,-101.562,0.000
1729781597.094,-71.777,-43.457,-50.293,-102.051,0.000
1729781597.098,65.430,-41.992,50.781,6.836,0.000
1729781597.102,82.520,-43.457,155.762,49.316,0.000
1729781597.106,-16.602,-41.992,81.543,-3.418,0.000
1729781597.110,-101.074,-45.410,-87.402,-83.496,0.000
1729781597.114,-64.453,-47.363,-60.059,-111.328,0.000
1729781597.117,68.848,-41.992,148.926,-27.344,0.000
1729781597.121,105.469,-34.180,122.070,61.523,0.000
1729781597.125,2.930,-35.645,-13.672,33.691,0.000
1729781597.129,-88.867,-36.621,50.293,-76.660,0.000
1729781597.133,-58.105,-30.273,158.203,-104.492,0.000
1729781597.137,51.758,-26.367,85.938,8.301,0.000
1729781597.141,100.586,-22.461,-144.531,106.445,0.000
1729781597.145,28.809,-23.926,61.523,61.035,0.000
1729781597.149,-84.961,-26.855,118.652,-57.129,0.000
1729781597.153,-83.008,-17.578,-10.254,-94.238,0.000
1729781597.157,43.945,-3.906,106.445,1.465,0.000
1729781597.160,138.184,2.441,168.457,114.258,0.000
1729781597.164,79.102,11.230,122.559,101.074,0.000
1729781597.168,-33.691,20.508,25.391,2.441,0.000
1729781597.172,-42.969,17.578,22.949,-47.363,0.000
1729781597.176,67.871,16.113,92.285,13.672,0.000
1729781597.180,166.016,31.250,194.336,123.535,0.000
1729781597.184,117.188,35.645,50.781,140.137,0.000
1729781597.188,-1.465,33.203,-80.566,41.992,0.000
1729781597.192,-22.949,34.180,122.070,-35.645,0.000
1729781597.196,80.566,33.691,168.457,21.973,0.000
1729781597.199,180.176,35.156,59.570,130.859,0.000
1729781597.203,149.902,41.504,75.684,158.691,0.000
1729781597.207,37.598,37.598,185.547,56.152,0.000
1729781597.211,-25.391,34.180,122.070,-35.156,0.000
1729781597.215,52.734,36.133,39.062,14.160,0.000
1729781597.219,149.902,28.809,53.223,108.887,0.000
1729781597.223,119.629,19.043,105.469,129.395,0.000
1729781597.227,12.207,16.602,88.867,49.805,0.000
1729781597.231,-55.664,14.648,-118.652,-37.598,0.000
1729781597.235,13.672,20.508,68.848,-29.297,0.000
1729781597.239,127.441,20.508,222.656,70.801,0.000
1729781597.242,123.535,11.719,143.555,133.789,0.000
1729781597.246,17.090,15.137,167.969,63.965,0.000
1729781597.250,-62.988,10.742,164.062,-42.969,0.000
1729781597.254,-12.207,-3.906,149.902,-35.645,0.000
1729781597.258,101.562,-8.789,123.535,72.754,0.000
1729781597.262,124.023,-7.812,132.324,133.301,0.000
1729781597.266,15.137,-8.789,58.105,78.125,0.000
1729781597.270,-80.078,-13.672,70.312,-29.785,0.000
1729781597.274,-37.109,-12.207,-17.578,-49.316,0.000
1729781597.278,84.961,-1.953,-129.883,58.594,0.000
1729781597.282,134.766,0.977,91.309,129.395,0.000
1729781597.285,41.992,0.000,159.668,88.867,0.000
1729781597.289,-68.359,-4.395,21.973,-30.762,0.000
1729781597.293,0.000,-7.812,-13.672,-73.242,0.000
1729781597.297,0.000,-3.418,27.832,24.414,0.000
1729781597.301,0.000,-1.465,77.637,108.398,0.000
1729781597.305,0.000,0.977,9.766,80.078,0.000
1729781597.309,0.000,-1.465,42.969,-28.809,0.000
1729781597.313,0.000,-7.324,42.480,-74.707,0.000
1729781597.317,0.000,-6.348,-40.527,2.930,0.000
1729781597.321,0.000,-6.836,-170.410,107.910,0.000
1729781597.324,0.000,-1.465,49.805,89.844,0.000
1729781597.328,0.000,7.324,194.824,-20.996,0.000
1729781597.332,0.000,2.930,32.715,-77.148,0.000
1729781597.336,0.000,-2.441,-46.387,-5.371,0.000
1729781597.340,126.465,1.953,84.473,92.285,0.000
1729781597.344,78.125,0.488,129.883,85.449,0.000
1729781597.348,-54.199,-10.254,41.504,-17.090,0.000
1729781597.352,-78.125,-7.812,57.617,-86.914,0.000
1729781597.356,29.785,-3.418,98.633,-28.320,0.000
1729781597.360,118.652,-7.324,80.078,80.078,0.000
1729781597.364,90.820,-5.371,-40.039,98.633,0.000
1729781597.367,-18.066,-4.395,-129.883,7.812,0.000
1729781597.371,-60.059,-5.859,116.211,-78.125,0.000
1729781597.375,17.578,-4.395,150.879,-41.992,0.000
1729781597.379,119.629,-2.441,34.180,66.895,0.000
1729781597.383,110.840,4.883,113.770,107.910,0.000
1729781597.387,-2.930,9.277,140.137,34.180,0.000
1729781597.391,-74.707,2.441,37.598,-54.199,0.000
1729781597.395,-1.465,2.441,-37.598,-35.156,0.000
1729781597.399,123.535,2.930,101.074,72.266,0.000
1729781597.403,117.188,-2.441,188.965,115.234,0.000
1729781597.407,-14.160,-3.906,39.551,44.922,0.000
1729781597.410,-94.238,-5.859,-209.473,-40.527,0.000
1729781597.414,-21.973,-7.812,-10.742,-51.758,0.000
1729781597.418,106.445,-8.301,209.473,44.922,0.000
1729781597.422,125.000,-9.766,152.344,117.676,0.000
1729781597.426,20.996,-4.395,101.562,51.270,0.000
1729781597.430,-72.266,-5.859,94.727,-52.246,0.000
1729781597.434,-38.574,-16.602,105.469,-71.289,0.000
1729781597.438,63.477,-20.020,73.242,12.695,0.000
1729781597.442,94.727,-18.066,109.863,92.285,0.000
1729781597.446,1.953,-18.555,120.605,47.852,0.000
1729781597.450,-111.816,-29.297,98.633,-55.176,0.000
1729781597.453,-81.055,-27.344,-65.918,-81.055,0.000
1729781597.457,32.227,-22.949,-194.336,-3.906,0.000
1729781597.461,83.008,-33.203,74.219,73.242,0.000
1729781597.465,-5.371,-49.805,143.066,34.668,0.000
1729781597.469,-136.230,-60.059,-113.281,-84.961,0.000
1729781597.473,-136.719,-62.988,-119.629,-127.930,0.000
1729781597.477,-29.785,-66.895,129.883,-59.082,0.000
1729781597.481,32.715,-70.801,110.840,31.250,0.000
1729781597.485,-52.734,-85.938,-58.105,23.438,0.000
1729781597.489,-169.922,-91.309,-9.277,-94.727,0.000
1729781597.492,-168.945,-92.285,136.719,-146.484,0.000
1729781597.496,-62.012,-99.609,62.500,-56.641,0.000
1729781597.500,14.648,-104.980,-177.246,36.133,0.000
1729781597.504,-51.270,-102.051,-83.008,6.348,0.000
1729781597.508,-155.273,-100.098,34.668,-94.727,0.000
1729781597.512,-172.852,-102.539,-157.715,-164.062,0.000
1729781597.516,-93.262,-99.609,-284.180,-105.957,0.000
1729781597.520,4.883,-95.703,23.926,-4.883,0.000
1729781597.524,-32.227,-103.027,151.367,7.812,0.000
1729781597.528,-155.762,-101.562,9.766,-83.008,0.000
1729781597.532,-174.805,-96.191,-15.137,-145.996,0.000
1729781597.535,-77.637,-110.352,53.711,-100.586,0.000
1729781597.539,13.184,-118.652,95.703,-11.719,0.000
1729781597.543,-11.230,-118.164,-57.617,14.160,0.000
1729781597.547,-132.324,-117.188,-250.977,-69.336,0.000
1729781597.551,-183.594,-117.676,-216.797,-156.738,0.000
1729781597.555,-100.098,-122.070,10.742,-136.230,0.000
1729781597.559,-9.766,-127.930,-74.707,-27.344,0.000
1729781597.563,-33.203,-135.254,-176.758,15.137,0.000
1729781597.567,-145.020,-142.578,59.082,-81.543,0.000
1729781597.571,-219.727,-146.973,-4.883,-188.965,0.000
1729781597.575,-158.691,-154.297,-224.121,-174.805,0.000
1729781597.578,-41.016,-152.832,-90.332,-78.613,0.000
1729781597.582,-20.020,-148.926,112.305,-33.691,0.000
1729781597.586,-129.395,-155.762,87.402,-101.074,0.000
1729781597.590,-223.145,-151.367,-64.453,-197.266,0.000
1729781597.594,-171.875,-149.902,-176.270,-188.477,0.000
1729781597.598,-49.316,-147.461,-115.234,-87.891,0.000
1729781597.602,-13.672,-144.531,19.531,-14.648,0.000
1729781597.606,-120.117,-150.391,-241.699,-51.270,0.000
1729781597.610,-219.238,-149.902,-106.934,-165.527,0.000
1729781597.614,-172.852,-144.043,120.117,-184.570,0.000
1729781597.617,-58.105,-144.043,3.906,-82.031,0.000
1729781597.621,-7.324,-136.230,-85.449,4.395,0.000
1729781597.625,-81.055,-121.094,60.059,-35.645,0.000
1729781597.629,-185.059,-129.395,67.871,-146.973,0.000
1729781597.633,-168.457,-132.324,-27.344,-177.734,0.000
1729781597.637,-58.105,-127.930,-67.383,-98.145,0.000
1729781597.641,6.348,-123.047,-36.621,-1.465,0.000
1729781597.645,-52.246,-116.699,-10.742,-18.066,0.000
1729781597.649,-165.527,-112.793,-215.820,-123.047,0.000
1729781597.653,-169.922,-110.352,-243.164,-160.645,0.000
1729781597.657,-44.922,-108.398,65.430,-103.027,0.000
1729781597.660,37.598,-96.680,114.746,-0.488,0.000
1729781597.664,-27.344,-90.332,-45.898,14.648,0.000
1729781597.668,-146.973,-95.215,-78.613,-88.379,0.000
1729781597.672,-162.598,-96.680,-81.543,-153.320,0.000
1729781597.676,-57.617,-93.750,33.203,-91.309,0.000
1729781597.680,26.855,-93.750,27.832,23.926,0.000
1729781597.684,-7.812,-96.680,36.133,28.320,0.000
1729781597.688,-128.906,-97.168,-61.523,-74.219,0.000
1729781597.692,-167.969,-88.379,-180.664,-137.695,0.000
1729781597.696,-69.824,-82.520,-239.258,-79.102,0.000
1729781597.700,43.945,-77.637,8.789,20.508,0.000
1729781597.703,27.344,-71.777,171.875,52.734,0.000
1729781597.707,-91.797,-72.266,35.645,-30.273,0.000
1729781597.711,-159.180,-78.613,-56.641,-143.066,0.000
1729781597.715,-80.078,-82.031,83.984,-111.328,0.000
1729781597.719,29.785,-82.031,160.645,2.930,0.000
1729781597.723,4.395,-81.543,62.012,42.969,0.000
1729781597.727,-113.281,-81.543,71.777,-24.902,0.000
1729781597.731,-170.410,-77.637,68.359,-118.164,0.000
1729781597.735,-90.332,-73.242,57.129,-92.773,0.000
1729781597.739,16.113,-76.172,-11.719,20.508,0.000
1729781597.743,15.625,-73.730,-130.859,74.219,0.000
1729781597.746,-89.355,-67.871,81.055,-3.418,0.000
1729781597.750,-186.523,-77.637,91.309,-111.816,0.000
1729781597.754,-136.719,-75.684,-24.902,-110.352,0.000
1729781597.758,-8.301,-69.824,65.430,-4.395,0.000
1729781597.762,15.625,-73.730,115.234,65.918,0.000
1729781597.766,-89.355,-77.637,37.109,14.160,0.000
1729781597.770,-177.246,-69.824,-61.523,-96.191,0.000
1729781597.774,-129.395,-65.430,19.043,-116.211,0.000
1729781597.778,-8.789,-66.406,114.258,-12.207,0.000
1729781597.782,39.062,-65.918,34.180,79.590,0.000
1729781597.785,-36.621,-67.871,-187.012,47.852,0.000
1729781597.789,-130.859,-62.500,-47.852,-78.613,0.000
1729781597.793,-109.375,-62.012,118.164,-127.930,0.000
1729781597.797,5.371,-63.965,103.027,-41.992,0.000
1729781597.801,74.219,-60.547,96.191,59.082,0.000
1729781597.805,14.648,-57.617,88.867,44.922,0.000
1729781597.809,0.000,-55.664,116.699,-55.176,0.000
1729781597.813,0.000,-51.270,-2.930,-115.723,0.000
1729781597.817,0.000,-50.293,-83.496,-65.430,0.000
1729781597.821,0.000,-48.828,103.516,44.434,0.000
1729781597.825,0.000,-50.781,137.207,41.504,0.000
1729781597.828,0.000,-60.547,-89.355,-53.711,0.000
1729781597.832,0.000,-62.500,-179.199,-105.957,0.000
1729781597.836,0.000,-54.688,88.867,-56.641,0.000
1729781597.840,0.000,-59.082,147.461,48.340,0.000
1729781597.844,0.000,-65.430,-7.812,72.266,0.000
1729781597.848,0.000,-62.988,-66.895,-25.879,0.000
1729781597.852,0.000,-54.688,39.551,-111.328,0.000
1729781597.856,-13.184,-54.688,79.590,-62.500,0.000
1729781597.860,75.195,-66.895,-41.992,52.734,0.000
1729781597.864,47.363,-65.430,73.730,79.102,0.000
1729781597.868,-64.941,-62.500,161.133,-17.090,0.000
1729781597.871,-120.117,-63.965,58.594,-93.262,0.000
1729781597.875,-46.387,-61.035,-198.730,-51.270,0.000
1729781597.879,54.199,-60.059,-138.672,38.574,0.000
1729781597.883,52.734,-56.641,136.719,79.590,0.000
1729781597.887,-64.453,-59.082,74.707,14.160,0.000
1729781597.891,-151.855,-64.453,-249.023,-72.266,0.000
1729781597.895,-67.871,-58.594,-41.992,-54.199,0.000
1729781597.899,61.523,-52.734,180.176,53.223,0.000
1729781597.903,65.430,-50.781,23.926,115.234,0.000
1729781597.907,-46.387,-51.270,-95.703,49.805,0.000
1729781597.911,-121.094,-50.781,27.344,-51.758,0.000
1729781597.914,-66.406,-51.270,110.840,-59.082,0.000
1729781597.918,41.016,-57.617,-15.137,48.340,0.000
1729781597.922,60.059,-61.035,-159.668,120.605,0.000
1729781597.926,-35.645,-52.734,-32.715,51.758,0.000
1729781597.930,-118.164,-51.270,134.766,-41.504,0.000
1729781597.934,-77.637,-54.688,-68.359,-40.039,0.000
1729781597.938,41.504,-53.711,-143.066,51.758,0.000
1729781597.942,90.820,-52.734,111.816,121.582,0.000
1729781597.946,0.000,-49.805,138.672,80.566,0.000
1729781597.950,-104.492,-43.457,-108.887,-24.902,0.000
1729781597.953,-84.961,-41.992,-230.957,-50.293,0.000
1729781597.957,48.340,-39.551,31.250,46.387,0.000
1729781597.961,107.422,-41.016,62.012,131.836,0.000
1729781597.965,26.855,-43.457,-120.117,94.238,0.000
1729781597.969,-75.195,-48.340,-264.160,-13.184,0.000
1729781597.973,-59.082,-45.410,-175.293,-58.105,0.000
1729781597.977,56.641,-44.434,-47.363,23.926,0.000
1729781597.981,111.816,-45.410,-304.199,137.207,0.000
1729781597.985,49.316,-42.969,-108.887,104.980,0.000
1729781597.989,-49.316,-49.316,107.910,-11.719,0.000
1729781597.993,-57.129,-58.594,-120.117,-57.617,0.000
1729781597.996,48.828,-56.152,-229.004,6.348,0.000
1729781598.000,132.812,-52.246,-80.078,101.562,0.000
1729781598.004,83.496,-53.223,60.059,107.422,0.000
1729781598.008,-38.086,-55.176,-79.102,4.883,0.000
1729781598.012,-75.195,-59.082,-218.262,-80.078,0.000
1729781598.016,20.508,-62.012,-243.164,-27.344,0.000
1729781598.020,105.957,-68.359,-191.406,70.312,0.000
1729781598.024,55.664,-83.984,-217.773,74.219,0.000
1729781598.028,-76.660,-92.773,-223.145,-21.484,0.000
1729781598.032,-114.746,-92.285,36.621,-117.188,0.000
1729781598.036,-27.344,-93.262,64.453,-86.426,0.000
1729781598.039,51.270,-114.746,-47.852,7.324,0.000
1729781598.043,12.695,-143.555,-3.906,17.090,0.000
1729781598.047,-105.469,-141.602,19.531,-71.289,0.000
1729781598.051,-163.574,-127.441,28.809,-160.645,0.000
1729781598.055,-90.332,-117.188,-29.785,-130.371,0.000
1729781598.059,25.391,-110.352,28.320,-19.531,0.000
1729781598.063,41.504,-104.980,45.410,33.203,0.000
1729781598.067,-68.359,-108.887,-63.965,-33.203,0.000
1729781598.071,-159.668,-108.398,-283.203,-131.348,0.000
1729781598.075,-103.027,-104.004,-217.285,-133.789,0.000
1729781598.078,23.438,-100.098,5.859,-31.738,0.000
1729781598.082,46.875,-91.309,80.566,44.922,0.000
1729781598.086,-55.664,-92.285,18.066,-14.648,0.000
1729781598.090,-139.648,-91.797,78.613,-115.234,0.000
1729781598.094,-93.262,-94.238,109.863,-135.742,0.000
1729781598.098,23.926,-89.844,56.641,-43.457,0.000
1729781598.102,59.570,-80.566,92.773,37.109,0.000
1729781598.106,-36.621,-87.402,101.074,-18.066,0.000
1729781598.110,-140.625,-95.215,26.855,-119.141,0.000
1729781598.114,-114.258,-93.750,-96.680,-127.930,0.000
1729781598.118,16.113,-84.961,-155.762,-39.062,0.000
1729781598.121,71.289,-82.520,89.355,32.227,0.000
1729781598.125,-10.254,-83.984,135.742,0.488,0.000
1729781598.129,-106.445,-80.566,-99.121,-96.680,0.000
1729781598.133,-100.098,-77.637,-234.375,-140.137,0.000
1729781598.137,14.160,-76.172,-13.184,-61.523,0.000
1729781598.141,86.426,-69.336,55.664,45.410,0.000
1729781598.145,22.949,-60.547,-44.922,36.133,0.000
1729781598.149,-90.820,-63.477,12.695,-87.402,0.000
1729781598.153,-102.051,-66.406,27.344,-151.855,0.000
1729781598.157,-1.465,-66.406,-161.621,-72.754,0.000
1729781598.161,61.523,-79.102,-325.684,24.902,0.000
1729781598.164,25.879,-64.941,-83.008,18.555,0.000
1729781598.168,-73.242,-49.316,116.699,-80.566,0.000
1729781598.172,-113.770,-57.129,-6.836,-144.043,0.000
1729781598.176,-20.508,-55.664,-114.746,-83.984,0.000
1729781598.180,84.473,-54.199,10.254,24.902,0.000
1729781598.184,54.199,-52.734,72.266,41.016,0.000
1729781598.188,-59.082,-51.758,-62.988,-42.480,0.000
1729781598.192,-100.098,-55.664,-186.035,-114.258,0.000
1729781598.196,-13.672,-54.199,-19.043,-80.566,0.000
1729781598.200,83.984,-54.688,70.312,29.297,0.000
1729781598.204,54.199,-61.035,-144.531,78.125,0.000
1729781598.207,-59.570,-63.965,-238.281,-6.348,0.000
1729781598.211,-107.422,-60.059,-42.969,-103.027,0.000
1729781598.215,-32.227,-59.570,89.355,-74.707,0.000
1729781598.219,73.242,-53.711,-52.734,40.039,0.000
1729781598.223,73.730,-49.316,-108.887,90.820,0.000
1729781598.227,-41.504,-45.898,81.055,5.859,0.000
1729781598.231,-122.070,-44.434,15.137,-91.309,0.000
1729781598.235,-58.105,-51.270,-241.699,-75.195,0.000
1729781598.239,56.641,-52.734,-69.336,20.996,0.000
1729781598.243,72.266,-56.152,124.512,84.961,0.000
1729781598.246,-29.297,-56.641,-64.941,38.574,0.000
1729781598.250,-120.605,-52.734,-304.199,-62.500,0.000
1729781598.254,-71.777,-54.199,-174.805,-76.172,0.000
1729781598.258,47.363,-56.152,79.590,7.324,0.000
1729781598.262,75.195,-56.152,-0.488,83.008,0.000
1729781598.266,-24.902,-49.805,-282.227,48.340,0.000
1729781598.270,-105.469,-44.434,-62.500,-75.195,0.000
1729781598.274,-77.637,-52.246,96.680,-114.746,0.000
1729781598.278,31.250,-54.688,-15.625,-7.324,0.000
1729781598.282,94.727,-45.898,-19.531,97.168,0.000
1729781598.286,15.137,-45.410,79.590,67.383,0.000
1729781598.289,-95.703,-48.340,75.195,-51.270,0.000
1729781598.293,-84.473,-50.781,-65.430,-91.797,0.000
1729781598.297,22.949,-50.781,-202.637,-5.371,0.000
1729781598.301,79.102,-52.734,-194.336,82.031,0.000
1729781598.305,5.371,-52.734,-28.809,55.176,0.000
1729781598.309,-104.980,-54.199,-55.176,-54.688,0.000
1729781598.313,-99.609,-50.293,-182.129,-109.863,0.000
1729781598.317,22.949,-44.922,53.223,-34.668,0.000
1729781598.321,109.863,-45.898,144.043,75.684,0.000
1729781598.325,51.270,-48.828,-41.016,76.172,0.000
1729781598.329,-76.172,-51.270,-221.191,-34.180,0.000
1729781598.332,-97.168,-47.852,-46.875,-104.492,0.000
1729781598.336,2.930,-49.805,71.777,-47.363,0.000
1729781598.340,98.145,-45.410,-49.316,52.734,0.000
1729781598.344,52.246,-40.039,-16.602,81.543,0.000
1729781598.348,-54.199,-36.621,87.402,-9.766,0.000
1729781598.352,-85.938,-37.109,38.574,-104.980,0.000
1729781598.356,-3.906,-43.457,-250.977,-41.016,0.000
1729781598.360,96.680,-40.527,-79.590,69.824,0.000
1729781598.364,77.148,-36.133,164.062,91.309,0.000
1729781598.368,-31.738,-37.598,65.430,10.254,0.000
1729781598.372,0.000,-32.715,12.695,-86.426,0.000
1729781598.375,0.000,-30.273,77.148,-61.035,0.000
1729781598.379,0.000,-26.367,93.262,48.828,0.000
1729781598.383,0.000,-24.902,87.891,83.008,0.000
1729781598.387,0.000,-25.391,114.258,5.859,0.000
1729781598.391,0.000,-27.832,-2.441,-88.379,0.000
1729781598.395,0.000,-30.273,-6.348,-84.473,0.000
1729781598.399,0.000,-32.227,-25.879,11.719,0.000
1729781598.403,0.000,-29.297,-151.367,78.613,0.000
1729781598.407,0.000,-34.180,87.891,2.441,0.000
1729781598.411,0.000,-39.551,155.762,-103.027,0.000
1729781598.414,0.000,-38.086,-88.867,-90.820,0.000
1729781598.418,5.371,-42.969,-106.934,17.090,0.000
1729781598.422,39.551,-41.992,108.398,82.031,0.000
1729781598.426,-40.527,-34.668,140.137,30.273,0.000
1729781598.430,-129.395,-34.180,-11.719,-73.242,0.000
1729781598.434,-90.332,-22.461,48.828,-80.078,0.000
1729781598.438,28.809,-16.113,121.582,26.855,0.000
1729781598.442,60.059,-23.926,69.336,110.840,0.000
1729781598.446,-37.109,-25.391,-130.371,81.543,0.000
1729781598.450,-129.395,-18.555,28.320,-36.133,0.000
1729781598.454,-116.211,-22.949,148.438,-85.938,0.000
1729781598.457,-8.789,-25.879,94.238,4.395,0.000
1729781598.461,62.988,-24.902,119.629,108.398,0.000
1729781598.465,-7.812,-31.738,145.508,85.449,0.000
1729781598.469,-128.418,-38.086,102.051,-25.391,0.000
1729781598.473,-136.719,-36.133,-6.836,-72.266,0.000
1729781598.477,-20.996,-33.203,81.543,1.465,0.000
1729781598.481,60.547,-32.227,124.023,104.492,0.000
1729781598.485,-7.324,-31.738,63.965,99.609,0.000
1729781598.489,-116.699,-28.809,-60.059,-0.488,0.000
1729781598.493,-127.930,-22.949,-201.172,-61.035,0.000
1729781598.497,-19.531,-20.020,72.266,-13.672,0.000
1729781598.500,81.055,-20.996,178.223,89.844,0.000
1729781598.504,47.363,-20.996,35.645,107.910,0.000
1729781598.508,-62.988,-18.066,96.680,4.883,0.000
1729781598.512,-99.121,-13.184,113.770,-80.078,0.000
1729781598.516,-8.789,-12.207,5.859,-28.320,0.000
1729781598.520,96.680,-13.672,6.348,91.309,0.000
1729781598.524,81.543,-8.301,99.609,114.258,0.000
1729781598.528,-30.762,0.488,124.023,17.578,0.000
1729781598.532,-83.008,-3.418,21.484,-65.918,0.000
1729781598.536,-5.859,-12.207,-176.758,-23.438,0.000
1729781598.539,103.516,-8.789,30.762,79.102,0.000
1729781598.543,107.910,-0.977,212.402,119.141,0.000
1729781598.547,-0.977,2.930,55.664,47.363,0.000
1729781598.551,-84.473,2.441,-7.812,-50.293,0.000
1729781598.555,-19.043,3.418,93.262,-37.109,0.000
1729781598.559,92.773,5.371,136.230,68.848,0.000
1729781598.563,90.820,0.977,58.105,124.512,0.000
1729781598.567,-7.324,-0.488,10.742,60.059,0.000
1729781598.571,-75.195,-2.930,82.520,-47.852,0.000
1729781598.575,-29.297,-7.324,82.520,-42.480,0.000
1729781598.579,81.543,-4.395,-33.691,68.848,0.000
1729781598.582,116.699,4.395,-74.219,130.859,0.000
1729781598.586,16.602,11.719,44.434,79.102,0.000
1729781598.590,-79.102,6.348,126.953,-34.180,0.000
1729781598.594,-35.645,6.836,-32.715,-41.016,0.000
1729781598.598,67.383,5.859,-101.074,64.453,0.000
1729781598.602,104.980,1.465,138.672,129.395,0.000
1729781598.606,26.855,2.930,125.977,99.121,0.000
1729781598.610,-77.148,-5.371,-55.664,4.395,0.000
1729781598.614,-62.988,-8.301,12.695,-43.457,0.000
1729781598.618,56.152,-7.324,118.164,38.086,0.000
1729781598.622,120.117,-3.418,75.684,141.602,0.000
1729781598.625,45.410,-0.488,-68.359,130.371,0.000
1729781598.629,-59.570,-1.465,-90.820,6.836,0.000
1729781598.633,-52.246,-1.953,111.328,-63.477,0.000
1729781598.637,54.199,-0.488,112.793,17.090,0.000
1729781598.641,114.746,1.953,-187.500,145.020,0.000
1729781598.645,62.500,9.766,-10.254,136.719,0.000
1729781598.649,-37.109,14.648,191.895,24.902,0.000
1729781598.653,-51.270,15.137,64.941,-27.832,0.000
1729781598.657,49.316,15.625,29.785,32.715,0.000
1729781598.661,146.484,14.648,90.332,131.836,0.000
1729781598.665,119.141,9.766,129.883,142.090,0.000
1729781598.668,10.742,6.348,13.672,41.992,0.000
1729781598.672,-20.020,5.371,-108.398,-30.762,0.000
1729781598.676,76.172,3.418,42.480,10.742,0.000
1729781598.680,173.828,0.000,112.305,116.211,0.000
1729781598.684,139.160,-3.418,58.594,150.879,0.000
1729781598.688,33.691,6.348,104.492,58.105,0.000
1729781598.692,-13.184,8.301,102.051,-38.574,0.000
1729781598.696,60.547,1.953,123.047,-2.441,0.000
1729781598.700,158.203,4.395,-69.336,114.258,0.000
1729781598.704,136.719,9.766,-185.547,146.973,0.000
1729781598.707,34.180,6.836,63.477,49.316,0.000
1729781598.711,-28.320,1.953,98.145,-49.805,0.000
1729781598.715,27.832,-2.441,-29.297,-29.297,0.000
1729781598.719,134.766,4.395,4.883,85.449,0.000
1729781598.723,136.719,8.789,106.445,151.367,0.000
1729781598.727,23.926,7.324,127.930,77.637,0.000
1729781598.731,-62.012,7.324,-144.531,-14.160,0.000
1729781598.735,5.371,11.719,1.953,-16.113,0.000
1729781598.739,124.512,11.230,180.664,73.730,0.000
1729781598.743,136.230,8.301,83.984,148.926,0.000
1729781598.747,48.340,14.648,99.121,92.285,0.000
1729781598.750,-39.062,21.973,144.531,-9.277,0.000
1729781598.754,-6.836,27.344,122.559,-21.973,0.000
1729781598.758,107.422,29.785,75.195,70.801,0.000
1729781598.762,151.855,31.250,137.695,138.672,0.000
1729781598.766,63.965,31.738,86.426,98.145,0.000
1729781598.770,-29.297,33.691,67.383,1.953,0.000
1729781598.774,-11.230,30.273,-43.457,-19.531,0.000
1729781598.778,90.820,24.902,-154.785,73.730,0.000
1729781598.782,152.832,23.438,140.137,150.391,0.000
1729781598.786,78.613,26.855,148.438,126.465,0.000
1729781598.790,-23.926,26.855,-22.949,30.762,0.000
1729781598.793,-17.090,21.484,8.301,-36.133,0.000
1729781598.797,77.148,17.090,77.637,31.738,0.000
1729781598.801,147.461,23.438,117.676,142.090,0.000
1729781598.805,95.215,21.484,29.785,127.441,0.000
1729781598.809,-12.695,15.137,49.316,24.902,0.000
1729781598.813,-23.438,11.719,67.383,-46.387,0.000
1729781598.817,71.289,7.324,26.367,8.301,0.000
1729781598.821,126.953,4.395,-125.488,113.281,0.000
1729781598.825,77.637,12.207,61.523,113.770,0.000
1729781598.829,-22.461,18.066,215.332,12.207,0.000
1729781598.832,-47.363,15.625,98.633,-53.223,0.000
1729781598.836,33.203,3.418,83.008,-12.207,0.000
1729781598.840,128.906,-1.953,166.504,83.008,0.000
1729781598.844,104.980,-3.906,194.824,117.188,0.000
1729781598.848,-15.625,-7.812,108.887,19.043,0.000
1729781598.852,-56.152,-6.836,115.723,-74.219,0.000
1729781598.856,27.832,-6.836,119.141,-33.691,0.000
1729781598.860,117.676,-13.184,41.504,62.012,0.000
1729781598.864,91.797,-16.113,-13.672,97.656,0.000
1729781598.868,-28.809,-18.555,-173.340,17.090,0.000
1729781598.872,-78.613,-13.672,-6.836,-92.285,0.000
1729781598.875,0.488,-12.207,166.016,-66.406,0.000
1729781598.879,104.492,-19.531,23.926,50.781,0.000
1729781598.883,123.535,-11.230,54.199,106.934,0.000
1729781598.887,14.648,-9.766,92.773,28.809,0.000
1729781598.891,-71.289,-11.719,-8.301,-71.289,0.000
1729781598.895,-13.184,-7.812,-45.410,-62.012,0.000
1729781598.899,96.191,-6.348,58.105,29.297,0.000
1729781598.903,105.957,-4.395,137.695,87.402,0.000
1729781598.907,2.441,-12.695,42.480,39.062,0.000
1729781598.911,-87.891,-20.020,-213.379,-51.270,0.000
1729781598.915,-49.805,-18.066,-111.816,-75.684,0.000
1729781598.918,62.012,-22.949,163.574,11.719,0.000
1729781598.922,89.355,-23.926,92.773,89.355,0.000
1729781598.926,-3.906,-20.020,-112.305,45.410,0.000
1729781598.930,-88.379,-22.949,-49.316,-57.617,0.000
1729781598.934,-80.566,-23.926,131.348,-94.238,0.000
1729781598.938,11.719,-16.602,39.551,-1.953,0.000
1729781598.942,61.523,-15.137,-38.086,90.332,0.000
1729781598.946,-13.672,-21.484,79.102,55.176,0.000
1729781598.950,-121.582,-22.461,104.980,-63.477,0.000
1729781598.954,-128.906,-18.066,-86.914,-101.074,0.000
1729781598.958,-20.508,-17.578,-100.098,-16.602,0.000
1729781598.961,54.199,-13.184,108.887,64.941,0.000
1729781598.965,-29.785,-6.348,90.332,31.738,0.000
1729781598.969,-174.805,0.488,-63.477,-84.473,0.000
1729781598.973,-191.895,4.395,-43.945,-141.602,0.000
1729781598.977,-74.707,2.441,99.609,-74.707,0.000
1729781598.981,-9.766,0.977,62.988,25.391,0.000
1729781598.985,-78.613,0.488,-99.609,15.137,0.000
1729781598.989,-193.848,-1.953,-254.883,-105.957,0.000
1729781598.993,-208.008,-0.977,-159.180,-175.781,0.000
1729781598.997,-100.586,-1.953,14.648,-106.934,0.000
1729781599.000,-21.484,-6.836,-230.469,1.465,0.000
1729781599.004,-50.781,-3.906,-262.207,4.883,0.000
1729781599.008,-154.785,-6.348,-22.949,-99.609,0.000
1729781599.012,-201.660,-14.160,-141.602,-181.152,0.000
1729781599.016,-107.422,-9.277,-423.340,-118.164,0.000
1729781599.020,2.930,-2.930,-203.125,-6.836,0.000
1729781599.024,-34.180,-20.508,59.570,0.000,0.000
1729781599.028,-161.133,-34.180,-65.430,-105.469,0.000
1729781599.032,-208.008,-33.691,-200.684,-198.730,0.000
1729781599.036,-112.305,-38.574,-202.637,-166.504,0.000
1729781599.040,8.789,-34.180,-241.699,-43.945,0.000
1729781599.043,0.488,-28.320,-272.949,5.859,0.000
1729781599.047,-109.863,-41.016,-290.039,-75.684,0.000
1729781599.051,-171.875,-44.922,-253.418,-168.945,0.000
1729781599.055,-87.891,-36.133,-154.785,-142.578,0.000
1729781599.059,33.203,-29.297,-235.840,-5.859,0.000
1729781599.063,42.969,-36.133,-188.477,67.383,0.000
1729781599.067,-51.270,-61.523,24.902,-13.184,0.000
1729781599.071,-125.977,-73.730,19.531,-113.770,0.000
1729781599.075,-49.316,-65.918,-249.512,-76.172,0.000
1729781599.079,68.848,-70.312,-256.836,26.855,0.000
1729781599.083,104.004,-69.824,64.941,92.773,0.000
1729781599.086,22.461,-68.848,56.641,57.129,0.000
1729781599.090,-74.219,-68.359,-255.859,-47.363,0.000
1729781599.094,-36.621,-59.570,-347.656,-61.523,0.000
1729781599.098,83.008,-70.801,-222.656,23.926,0.000
1729781599.102,140.137,-78.613,-195.801,107.422,0.000
1729781599.106,63.965,-63.477,-333.496,94.238,0.000
1729781599.110,-50.293,-56.152,-232.422,-24.902,0.000
1729781599.114,-10.742,-38.086,-17.090,-50.293,0.000
1729781599.118,119.141,-27.832,28.320,48.340,0.000
1729781599.122,0.000,-44.922,23.926,128.906,0.000
1729781599.126,0.000,-61.035,175.781,115.723,0.000
1729781599.129,0.000,-65.918,224.121,16.602,0.000
1729781599.133,0.000,-75.684,172.852,-34.668,0.000
1729781599.137,0.000,-202.637,198.242,-104.004,0.000
1729781599.141,0.000,-304.688,179.199,-149.414,0.000
1729781599.145,0.000,-242.188,230.957,-133.301,0.000
1729781599.149,0.000,-231.445,153.809,-219.727,0.000
1729781599.153,0.000,-237.305,6.836,-261.230,0.000
1729781599.157,0.000,-200.195,260.254,-184.082,0.000
1729781599.161,0.000,-164.062,316.406,-41.992,0.000
1729781599.165,0.000,-152.344,229.980,1.465,0.000
1729781599.168,-122.070,-191.406,245.605,-115.234,0.000
1729781599.172,-159.668,-218.750,205.078,-204.102,0.000
1729781599.176,-71.289,-250.488,170.410,-170.898,0.000
1729781599.180,50.293,-279.785,74.707,-58.105,0.000
1729781599.184,121.094,-208.984,105.469,54.199,0.000
1729781599.188,104.492,-125.000,-46.875,80.078,0.000
1729781599.192,111.816,-97.656,-263.672,57.129,0.000
1729781599.196,217.773,-96.191,-378.906,113.770,0.000
1729781599.200,338.379,-100.098,-269.531,226.562,0.000
1729781599.204,336.426,-114.746,-145.020,259.766,0.000
1729781599.208,211.914,-136.719,-278.809,185.059,0.000
1729781599.211,125.977,-163.086,-380.859,85.938,0.000
1729781599.215,185.059,-212.402,0.000,58.594,0.000
1729781599.219,280.762,-246.094,0.000,149.414,0.000
1729781599.223,304.688,-231.445,0.000,235.840,0.000
1729781599.227,229.980,-216.797,0.000,187.012,0.000
1729781599.231,177.246,-198.730,0.000,103.027,0.000
1729781599.235,224.609,-191.406,0.000,112.793,0.000
1729781599.239,313.965,-195.312,0.000,214.355,0.000
1729781599.243,368.164,-183.105,0.000,303.223,0.000
1729781599.247,299.805,-168.457,0.000,249.512,0.000
1729781599.251,223.145,-161.133,0.000,148.438,0.000
1729781599.254,251.953,-181.641,0.000,122.070,0.000
1729781599.258,345.215,-205.078,0.000,195.312,0.000
1729781599.262,377.441,-211.426,-541.016,286.621,0.000
1729781599.266,282.715,-214.355,-588.867,246.094,0.000
1729781599.270,180.664,-205.566,-662.598,119.629,0.000
1729781599.274,198.730,-204.102,-523.926,62.988,0.000
1729781599.278,308.105,-216.309,-418.945,129.883,0.000
1729781599.282,360.840,-209.961,-468.262,220.703,0.000
1729781599.286,276.855,-218.750,-564.941,204.590,0.000
1729781599.290,162.109,-226.562,-435.547,77.148,0.000
1729781599.293,166.504,-211.914,-336.914,10.254,0.000
1729781599.297,271.484,-208.008,-351.074,74.219,0.000
1729781599.301,336.914,-212.402,-295.410,167.480,0.000
1729781599.305,276.855,-202.148,-278.809,171.875,0.000
1729781599.309,164.062,-180.176,-265.625,67.383,0.000
1729781599.313,143.066,-177.734,-310.059,-10.254,0.000
1729781599.317,235.352,-192.383,-350.098,34.180,0.000
1729781599.321,309.082,-195.801,-329.102,138.184,0.000
1729781599.325,270.508,-188.477,-332.520,149.902,0.000
1729781599.329,163.086,-176.758,-411.133,51.270,0.000
1729781599.333,117.188,-166.992,-491.699,-21.973,0.000
1729781599.336,200.195,-170.898,-309.082,-2.930,0.000
1729781599.340,291.504,-158.203,-240.234,90.820,0.000
1729781599.344,262.207,-144.043,-300.781,123.535,0.000
1729781599.348,133.301,-141.602,-289.551,24.902,0.000
1729781599.352,92.773,-127.441,-331.543,-65.918,0.000
1729781599.356,182.129,-126.953,-431.152,-27.832,0.000
1729781599.360,274.414,-134.277,-497.559,78.613,0.000
1729781599.364,272.949,-130.859,-373.535,115.723,0.000
1729781599.368,170.898,-126.953,-325.684,28.320,0.000
1729781599.372,97.168,-128.418,-406.738,-74.707,0.000
1729781599.376,142.090,-142.090,-514.648,-57.129,0.000
1729781599.379,239.746,-143.555,-449.707,29.785,0.000
1729781599.383,248.535,-134.277,-330.078,75.195,0.000
1729781599.387,136.719,-130.371,-372.070,25.879,0.000
1729781599.391,56.152,-128.418,-547.852,-62.012,0.000
1729781599.395,114.746,-127.930,-395.996,-80.078,0.000
1729781599.399,218.750,-127.441,-224.609,4.883,0.000
1729781599.403,225.586,-120.605,-263.672,80.566,0.000
1729781599.407,118.652,-108.398,-244.141,38.086,0.000
1729781599.411,41.504,-104.492,-165.527,-55.176,0.000
1729781599.415,81.543,-111.328,-21.973,-81.055,0.000
1729781599.419,194.824,-110.352,44.922,-5.371,0.000
1729781599.422,245.117,-100.586,-20.020,69.824,0.000
1729781599.426,150.391,-98.633,92.773,26.367,0.000
1729781599.430,42.969,-99.121,223.145,-74.219,0.000
1729781599.434,62.988,-97.168,59.570,-93.262,0.000
1729781599.438,180.664,-91.309,-60.547,6.836,0.000
1729781599.442,248.047,-90.820,212.402,86.426,0.000
1729781599.446,182.129,-96.191,235.352,47.363,0.000
1729781599.450,55.664,-115.723,113.281,-60.547,0.000
1729781599.454,31.250,-117.676,88.379,-121.094,0.000
1729781599.458,151.855,-111.328,173.340,-66.895,0.000
1729781599.461,222.168,-134.766,169.922,14.160,0.000
1729781599.465,123.047,-145.508,55.664,-2.441,0.000
1729781599.469,-14.160,-155.762,26.855,-103.516,0.000
1729781599.473,-44.434,-194.336,39.551,-192.383,0.000
1729781599.477,17.090,-227.539,114.746,-179.199,0.000
1729781599.481,57.129,-241.211,-91.309,-89.844,0.000
1729781599.485,5.859,-258.789,8.301,-106.934,0.000
1729781599.489,-124.512,-285.156,209.961,-234.863,0.000
1729781599.493,-174.805,-292.480,81.543,-310.547,0.000
1729781599.497,-74.707,-299.805,64.453,-267.578,0.000
1729781599.501,43.457,-291.016,167.969,-154.297,0.000
1729781599.504,5.859,-287.598,137.695,-121.094,0.000
1729781599.508,-135.254,-283.203,64.453,-203.613,0.000
1729781599.512,-178.711,-270.996,87.402,-275.391,0.000
1729781599.516,-73.242,-288.574,59.570,-231.934,0.000
1729781599.520,45.898,-287.109,84.473,-138.184,0.000
1729781599.524,34.668,-269.531,17.578,-96.191,0.000
1729781599.528,-85.449,-268.066,-223.633,-166.504,0.000
1729781599.532,-154.785,-271.484,-54.199,-281.738,0.000
1729781599.536,-51.758,-250.000,68.359,-241.699,0.000
1729781599.540,81.055,-225.586,-41.504,-111.328,0.000
1729781599.544,64.941,-253.906,0.000,-65.430,0.000
1729781599.547,-52.734,-271.973,0.000,-128.418,0.000
1729781599.551,-149.414,-267.578,0.000,-237.793,0.000
1729781599.555,-89.844,-276.367,0.000,-250.977,0.000
1729781599.559,43.945,-280.762,0.000,-153.320,0.000
1729781599.563,47.852,-274.902,0.000,-92.285,0.000
1729781599.567,-50.293,-271.484,0.000,-148.926,0.000
1729781599.571,-117.676,-266.113,0.000,-227.051,0.000
1729781599.575,-51.758,-254.395,0.000,-233.398,0.000
1729781599.579,109.863,-242.676,0.000,-130.859,0.000
1729781599.583,188.965,-223.633,0.000,-22.949,0.000
1729781599.586,97.168,-207.031,0.000,-58.105,0.000
1729781599.590,1.465,-204.102,-272.949,-167.969,0.000
1729781599.594,53.711,-206.055,-262.695,-183.105,0.000
1729781599.598,182.617,-202.148,-276.367,-86.426,0.000
1729781599.602,264.648,-197.266,-273.438,4.395,0.000
1729781599.606,190.430,-198.730,-258.301,-24.414,0.000
1729781599.610,100.586,-181.152,-307.129,-110.352,0.000
1729781599.614,144.531,-161.133,-374.512,-129.883,0.000
1729781599.618,273.438,-166.992,-382.812,-60.547,0.000
1729781599.622,346.191,-171.875,-221.191,30.762,0.000
1729781599.626,280.762,-158.203,-219.238,29.297,0.000
1729781599.629,186.523,-141.602,-319.824,-70.312,0.000
1729781599.633,183.105,-166.992,-249.023,-144.043,0.000
1729781599.637,315.918,-173.828,-222.168,-79.102,0.000
1729781599.641,425.781,-155.762,-289.551,33.691,0.000
1729781599.645,367.188,-157.715,-331.543,29.297,0.000
1729781599.649,256.836,-152.344,-269.531,-73.242,0.000
1729781599.653,243.652,-146.484,-258.789,-138.184,0.000
1729781599.657,355.469,-142.578,-351.562,-86.426,0.000
1729781599.661,471.680,-142.578,-483.887,21.484,0.000
1729781599.665,448.730,-155.273,-392.090,31.738,0.000
1729781599.669,345.215,-156.250,-242.188,-71.289,0.000
1729781599.672,310.547,-146.973,-299.805,-145.996,0.000
1729781599.676,395.020,-143.066,-332.520,-112.793,0.000
1729781599.680,525.879,-128.418,-329.102,2.441,0.000
1729781599.684,531.738,-104.004,-269.043,55.176,0.000
1729781599.688,426.270,-88.867,-319.336,-19.531,0.000
1729781599.692,392.578,-67.383,-358.398,-90.820,0.000
1729781599.696,491.211,-50.293,-294.434,-44.434,0.000
1729781599.700,620.605,-32.715,-275.879,83.008,0.000
1729781599.704,641.602,-12.695,-345.215,163.574,0.000
1729781599.708,553.223,4.395,-384.766,100.586,0.000
1729781599.712,492.676,8.789,-285.645,-6.348,0.000
1729781599.715,568.359,19.531,-275.879,-1.465,0.000
1729781599.719,687.988,13.672,-344.238,102.051,0.000
1729781599.723,687.988,-6.348,-284.668,154.297,0.000
1729781599.727,580.566,-3.906,-198.730,88.867,0.000
1729781599.731,496.094,7.812,-313.477,-17.578,0.000
1729781599.735,541.504,7.324,-408.203,-30.762,0.000
1729781599.739,667.480,-0.977,-295.898,62.988,0.000
1729781599.743,685.547,-12.695,-208.008,126.465,0.000
1729781599.747,565.430,-6.348,-266.602,85.449,0.000
1729781599.751,446.289,-5.371,-435.059,-22.461,0.000
1729781599.754,462.402,-45.898,-349.121,-86.914,0.000
1729781599.758,566.406,-56.152,-238.281,-15.625,0.000
1729781599.762,604.004,-39.551,-294.922,91.797,0.000
1729781599.766,497.559,-38.574,-440.430,80.566,0.000
1729781599.770,395.020,-41.016,-322.266,-49.316,0.000
1729781599.774,426.758,-38.574,-252.930,-91.797,0.000
1729781599.778,521.484,-34.180,-328.125,2.441,0.000
1729781599.782,572.266,-43.457,-240.723,88.867,0.000
1729781599.786,501.953,-44.922,-216.309,75.684,0.000
1729781599.790,384.766,-21.973,-241.211,-16.113,0.000
1729781599.794,374.512,-48.340,-302.734,-67.871,0.000
1729781599.797,466.797,-63.477,-341.797,-9.766,0.000
1729781599.801,517.578,-56.152,-269.043,69.336,0.000
1729781599.805,466.309,-46.875,-130.371,67.383,0.000
1729781599.809,351.562,-38.574,-239.746,-25.879,0.000
1729781599.813,309.570,-58.594,-302.246,-106.445,0.000
1729781599.817,436.523,-43.457,-0.977,-53.711,0.000
1729781599.821,528.809,-41.504,118.164,60.059,0.000
1729781599.825,427.246,-97.656,-14.648,41.992,0.000
1729781599.829,230.469,-184.570,15.625,-138.672,0.000
1729781599.833,127.930,-243.652,119.141,-287.109,0.000
1729781599.837,198.730,-248.047,72.754,-254.883,0.000
1729781599.840,325.195,-193.848,67.871,-103.027,0.000
1729781599.844,340.820,-141.602,98.145,-15.137,0.000
1729781599.848,281.738,-49.316,151.855,-47.363,0.000
1729781599.852,287.598,92.773,149.902,-67.871,0.000
1729781599.856,412.598,191.895,-69.336,19.531,0.000
1729781599.860,547.363,291.992,110.840,141.602,0.000
1729781599.864,576.172,414.551,286.133,210.449,0.000
1729781599.868,493.164,456.055,181.152,179.199,0.000
1729781599.872,0.000,487.305,181.152,115.723,0.000
1729781599.876,0.000,587.891,223.145,146.973,0.000
1729781599.880,0.000,701.660,211.426,316.895,0.000
1729781599.883,0.000,834.473,78.125,467.285,0.000
1729781599.887,0.000,931.152,23.438,437.500,0.000
1729781599.891,0.000,973.633,-12.695,353.516,0.000
1729781599.895,0.000,970.215,-110.352,291.992,0.000
1729781599.899,0.000,844.238,-193.359,250.488,0.000
1729781599.903,0.000,693.359,-224.121,201.660,0.000
1729781599.907,0.000,592.285,27.832,51.270,0.000
1729781599.911,0.000,434.570,91.309,-202.148,0.000
1729781599.915,0.000,-18.555,-155.762,-595.215,0.000
1729781599.919,-426.758,-393.555,-247.559,-831.055,0.000
1729781599.922,-601.074,-641.113,-247.070,-939.941,0.000
1729781599.926,-954.590,-960.938,-300.781,-1000.000,0.000
1729781599.930,-1000.000,-1000.000,-392.090,-997.070,0.000
1729781599.934,-988.281,-990.234,-381.348,-1000.000,0.000
1729781599.938,-1000.000,-1000.000,-395.996,-1000.000,0.000
1729781599.942,-1000.000,-1000.000,-425.293,-1000.000,0.000
1729781599.946,-1000.000,-1000.000,-574.219,-1000.000,0.000
1729781599.950,-1000.000,-1000.000,-506.348,-1000.000,0.000
1729781599.954,-1000.000,-998.047,-365.723,-1000.000,0.000
1729781599.958,-1000.000,-995.117,-407.227,-1000.000,0.000
1729781599.962,-1000.000,-998.047,-409.180,-1000.000,0.000
1729781599.965,-1000.000,-796.387,-373.535,-1000.000,0.000
1729781599.969,-999.512,-371.582,-390.625,-1000.000,0.000
1729781599.973,-999.023,87.891,-439.941,-1000.000,0.000
1729781599.977,-1000.000,613.281,-404.297,-1000.000,0.000
1729781599.981,-946.289,892.090,-383.789,-1000.000,0.000
1729781599.985,-873.047,871.094,-410.645,-1000.000,0.000
1729781599.989,-843.262,931.152,-499.023,-999.512,0.000
1729781599.993,-781.250,979.980,-678.223,-998.535,0.000
1729781599.997,-653.809,967.285,-521.484,-1000.000,0.000
1729781600.001,-543.945,922.852,-482.422,-934.082,0.000
1729781600.005,-543.457,858.398,-565.430,-848.633,0.000
1729781600.008,-632.812,774.902,-543.945,-904.785,0.000
1729781600.012,-684.082,656.250,-541.504,-987.793,0.000
1729781600.016,-596.680,531.250,-587.402,-953.125,0.000
1729781600.020,-522.461,398.438,-662.598,-872.559,0.000
1729781600.024,-588.867,270.020,-580.078,-882.812,0.000
1729781600.028,-711.426,201.660,-562.012,-952.148,0.000
1729781600.032,-765.625,162.598,-652.832,-1000.000,0.000
1729781600.036,-669.922,124.512,-749.023,-937.500,0.000
1729781600.040,-506.836,102.539,-635.742,-785.645,0.000
1729781600.044,-434.570,66.406,-542.480,-700.684,0.000
1729781600.047,-512.695,15.137,-607.422,-715.820,0.000
1729781600.051,-603.027,-46.387,-610.840,-771.973,0.000
1729781600.055,-528.809,-82.031,-607.422,-744.141,0.000
1729781600.059,-364.746,-88.379,-621.094,-593.750,0.000
1729781600.063,-325.195,-136.230,-685.059,-495.605,0.000
1729781600.067,-458.984,-244.141,-702.148,-555.664,0.000
1729781600.071,-594.238,-325.684,-668.457,-660.645,0.000
1729781600.075,-592.285,-403.809,-671.875,-704.102,0.000
1729781600.079,-549.805,-536.133,-756.836,-687.988,0.000
1729781600.083,-540.527,-572.754,-713.867,-626.953,0.000
1729781600.087,-610.352,-571.289,-650.879,-645.996,0.000
1729781600.090,-710.449,-619.141,-711.426,-737.793,0.000
1729781600.094,-718.750,-681.152,-742.676,-770.996,0.000
1729781600.098,-641.602,-750.000,-701.172,-724.121,0.000
1729781600.102,-658.203,-857.910,-689.453,-711.426,0.000
1729781600.106,-846.191,-980.469,-753.906,-833.008,0.000
1729781600.110,-990.723,-1000.000,-809.570,-962.891,0.000
1729781600.114,-971.191,-996.094,-769.531,-979.492,0.000
1729781600.118,-825.684,-995.605,-751.953,-868.652,0.000
1729781600.122,-701.660,-908.691,-783.203,-725.098,0.000
1729781600.126,-727.051,-812.988,-828.125,-677.246,0.000
1729781600.130,-812.988,-805.176,-765.137,-766.602,0.000
1729781600.133,-789.062,-796.875,-693.359,-816.406,0.000
1729781600.137,-621.094,-750.977,-719.727,-703.125,0.000
1729781600.141,-470.215,-705.566,-821.289,-532.715,0.000
1729781600.145,-484.375,-664.062,-729.492,-500.977,0.000
1729781600.149,-622.559,-663.574,-660.645,-611.328,0.000
1729781600.153,-676.270,-670.410,-745.117,-671.387,0.000
1729781600.157,-557.617,-661.133,-708.984,-609.375,0.000
1729781600.161,-441.406,-670.410,-659.668,-503.418,0.000
1729781600.165,-475.098,-649.902,-673.340,-456.055,0.000
1729781600.169,-592.285,-591.309,-738.770,-497.070,0.000
1729781600.173,-639.160,-540.527,-792.969,-541.016,0.000
1729781600.176,-548.340,-530.762,-784.668,-500.000,0.000
1729781600.180,-431.152,-492.676,-713.379,-392.090,0.000
1729781600.184,-421.387,-399.414,-750.488,-299.316,0.000
1729781600.188,-538.574,-326.172,-795.898,-330.078,0.000
1729781600.192,-627.441,-298.828,-728.516,-448.730,0.000
1729781600.196,-516.113,-264.648,-694.336,-420.898,0.000
1729781600.200,-358.398,-215.332,-742.676,-272.461,0.000
1729781600.204,-336.426,-150.879,-755.859,-177.734,0.000
1729781600.208,-462.891,-64.941,-704.102,-203.125,0.000
1729781600.212,-528.320,29.785,-722.168,-245.605,0.000
1729781600.215,-395.508,94.238,-801.270,-186.523,0.000
1729781600.219,-221.680,111.328,-769.043,-56.152,0.000
1729781600.223,-170.410,131.348,-675.781,37.598,0.000
1729781600.227,-300.781,166.504,-714.844,10.742,0.000
1729781600.231,-396.484,190.918,-837.891,-46.387,0.000
1729781600.235,-322.754,222.168,-753.418,-54.199,0.000
1729781600.239,-186.035,256.348,-662.598,38.086,0.000
1729781600.243,-120.605,237.793,-724.609,140.625,0.000
1729781600.247,-218.262,201.660,-732.422,114.746,0.000
1729781600.251,-343.262,219.238,-707.031,19.531,0.000
1729781600.255,-302.246,254.883,-711.426,6.836,0.000
1729781600.258,-96.680,269.043,-731.934,110.840,0.000
1729781600.262,54.688,279.297,-733.398,215.332,0.000
1729781600.266,3.906,293.457,-768.066,201.172,0.000
1729781600.270,-79.590,333.984,-789.062,100.586,0.000
1729781600.274,-14.648,375.488,-780.762,59.082,0.000
1729781600.278,182.129,424.316,-791.016,145.996,0.000
1729781600.282,345.215,461.914,-678.223,242.676,0.000
1729781600.286,312.012,456.055,-668.457,238.770,0.000
1729781600.290,215.820,648.438,-733.887,160.156,0.000
1729781600.294,258.301,916.016,-718.750,103.027,0.000
1729781600.298,456.055,976.074,-715.332,160.645,0.000
1729781600.301,621.094,968.750,-671.875,271.484,0.000
1729781600.305,585.938,975.098,-735.352,279.785,0.000
1729781600.309,457.520,974.609,-709.473,174.316,0.000
1729781600.313,433.105,974.609,-701.660,91.797,0.000
1729781600.317,572.754,974.609,-726.562,125.488,0.000
1729781600.321,695.801,974.609,-792.969,216.797,0.000
1729781600.325,668.945,974.609,-696.289,214.844,0.000
1729781600.329,555.176,973.633,-612.305,99.609,0.000
1729781600.333,492.188,974.609,-686.523,-9.766,0.000
1729781600.337,601.074,973.633,-670.410,14.160,0.000
1729781600.341,742.188,944.336,-618.164,132.812,0.000
1729781600.344,701.660,900.879,-650.391,172.852,0.000
1729781600.348,528.320,855.957,-706.055,74.707,0.000
1729781600.352,441.406,819.336,-668.457,-18.066,0.000
1729781600.356,525.391,775.879,-657.227,2.441,0.000
1729781600.360,630.371,719.238,-694.824,98.633,0.000
1729781600.364,611.328,691.895,-701.660,151.367,0.000
1729781600.368,459.961,673.828,-758.789,84.961,0.000
1729781600.372,357.422,650.391,-666.016,-24.902,0.000
1729781600.376,440.430,618.164,-632.812,-15.625,0.000
1729781600.380,596.191,577.148,-685.547,102.051,0.000
1729781600.383,617.188,555.176,-613.281,162.109,0.000
1729781600.387,0.000,540.039,-601.074,90.820,0.000
1729781600.391,0.000,490.723,-696.777,-10.742,0.000
1729781600.395,0.000,441.895,-737.305,-29.297,0.000
1729781600.399,0.000,426.758,-666.992,63.477,0.000
1729781600.403,0.000,418.945,-635.254,145.508,0.000
1729781600.407,0.000,365.234,-689.453,72.266,0.000
1729781600.411,0.000,287.598,-762.207,-104.004,0.000
1729781600.415,0.000,254.883,-672.852,-178.711,0.000
1729781600.419,0.000,217.773,-590.820,-95.703,0.000
1729781600.423,0.000,188.477,-621.582,-9.277,0.000
1729781600.426,0.000,182.129,-775.391,-18.555,0.000
1729781600.430,0.000,146.484,-708.008,-156.738,0.000
1729781600.434,50.781,124.512,-609.863,-250.488,0.000
1729781600.438,176.758,121.582,-684.570,-176.758,0.000
1729781600.442,238.770,110.352,-656.738,-71.777,0.000
1729781600.446,135.742,92.285,-632.324,-78.613,0.000
1729781600.450,-97.168,4.883,-651.367,-270.508,0.000
1729781600.454,-262.695,-124.023,-709.473,-456.055,0.000
1729781600.458,-222.656,-205.566,-806.641,-435.547,0.000
1729781600.462,-145.508,-248.535,-655.762,-374.023,0.000
1729781600.466,-209.473,-282.227,-589.844,-374.512,0.000
1729781600.469,-350.098,-284.180,-687.500,-441.406,0.000
1729781600.473,-355.469,-266.113,-688.965,-486.328,0.000
1729781600.477,-200.195,-243.164,-639.648,-406.738,0.000
1729781600.481,-65.430,-226.074,-668.945,-265.625,0.000
1729781600.485,-84.961,-210.449,-742.188,-213.379,0.000
1729781600.489,-221.191,-192.871,-688.477,-302.246,0.000
1729781600.493,-272.949,-176.758,-654.785,-374.512,0.000
1729781600.497,-154.297,-165.039,-677.734,-306.152,0.000
1729781600.501,-30.273,-170.898,-791.016,-180.664,0.000
1729781600.505,-91.797,-203.613,-747.070,-191.895,0.000
1729781600.508,-270.020,-242.676,-656.250,-318.359,0.000
1729781600.512,-360.840,-261.719,-719.238,-404.297,0.000
1729781600.516,-262.695,-255.859,-818.848,-361.328,0.000
1729781600.520,-98.633,-220.703,-721.191,-252.441,0.000
1729781600.524,-84.473,-193.848,-696.777,-186.035,0.000
1729781600.528,-215.332,-185.547,-755.859,-234.375,0.000
1729781600.532,-306.641,-180.664,-750.000,-328.613,0.000
1729781600.536,-219.238,-170.410,-732.910,-323.242,0.000
1729781600.540,-51.270,-134.277,-711.914,-193.359,0.000
1729781600.544,-37.109,-134.766,-751.465,-110.840,0.000
1729781600.548,-181.152,-148.438,-792.969,-168.457,0.000
1729781600.551,-282.715,-137.695,-760.254,-272.949,0.000
1729781600.555,-208.008,-128.418,-715.820,-273.926,0.000
1729781600.559,-60.059,-118.164,-764.648,-158.691,0.000
1729781600.563,-42.480,-125.977,-789.551,-80.078,0.000
1729781600.567,-158.203,-132.812,-757.324,-138.184,0.000
1729781600.571,-274.414,-133.789,-823.730,-240.723,0.000
1729781600.575,-245.117,-115.234,-881.348,-242.676,0.000
1729781600.579,-110.840,-107.422,-853.516,-154.297,0.000
1729781600.583,-43.457,-112.305,-808.594,-79.102,0.000
1729781600.587,-142.090,-102.051,-832.031,-106.445,0.000
1729781600.591,-285.156,-104.980,-893.066,-205.566,0.000
1729781600.594,-270.508,-108.887,-890.625,-235.352,0.000
1729781600.598,-133.301,-104.492,-862.793,-166.992,0.000
1729781600.602,-75.195,-115.723,-850.586,-84.961,0.000
1729781600.606,-169.434,-119.629,-930.664,-70.801,0.000
1729781600.610,-301.758,-118.164,-926.758,-197.266,0.000
1729781600.614,-340.820,-160.156,-881.836,-297.852,0.000
1729781600.618,-205.078,-146.484,-915.527,-204.102,0.000
1729781600.622,-52.734,-79.102,-910.156,-41.992,0.000
1729781600.626,-114.746,-40.039,-901.367,-21.484,0.000
1729781600.630,-245.605,-28.809,-948.242,-119.629,0.000
1729781600.634,-249.023,-14.160,-967.773,-177.246,0.000
1729781600.637,-129.395,-2.441,-951.172,-114.258,0.000
1729781600.641,-27.344,-12.207,-958.984,4.395,0.000
1729781600.645,-43.945,20.020,-978.027,52.246,0.000
1729781600.649,-127.930,92.285,-979.492,10.742,0.000
1729781600.653,-131.836,129.883,-977.539,-16.113,0.000
1729781600.657,-13.672,122.070,-974.121,25.391,0.000
1729781600.661,94.238,121.094,-975.586,130.859,0.000
1729781600.665,68.848,132.324,-987.793,173.340,0.000
1729781600.669,-74.707,124.023,-982.422,59.082,0.000
1729781600.673,-161.621,104.980,-983.887,-57.129,0.000
1729781600.676,-46.387,114.746,-983.887,-11.230,0.000
1729781600.680,101.074,128.906,-988.281,110.840,0.000
1729781600.684,73.730,115.234,-982.910,126.953,0.000
1729781600.688,-96.191,74.219,-985.352,25.879,0.000
1729781600.692,-191.406,68.359,-994.141,-59.570,0.000
1729781600.696,-95.703,102.539,-998.047,-30.762,0.000
1729781600.700,52.246,96.680,-982.422,64.453,0.000
1729781600.704,85.449,86.914,-973.633,129.883,0.000
1729781600.708,-48.828,101.074,-981.445,60.059,0.000
1729781600.712,-161.133,99.609,-980.469,-63.965,0.000
1729781600.716,-91.797,93.750,-980.957,-63.477,0.000
1729781600.719,46.387,121.094,-980.469,32.227,0.000
1729781600.723,75.195,97.168,-992.676,78.613,0.000
1729781600.727,-53.711,57.129,-991.211,9.277,0.000
1729781600.731,-173.828,105.957,-981.445,-84.961,0.000
1729781600.735,-95.703,115.723,-991.211,-79.102,0.000
1729781600.739,36.621,72.266,-997.559,10.254,0.000
1729781600.743,66.895,62.500,-992.676,96.680,0.000
1729781600.747,-4.883,85.938,-986.328,57.617,0.000
1729781600.751,-120.605,104.492,-987.793,-53.711,0.000
1729781600.755,-86.914,114.746,-994.629,-65.918,0.000
1729781600.759,64.941,108.887,-988.281,18.066,0.000
1729781600.762,129.883,88.379,-986.328,102.051,0.000
1729781600.766,18.066,80.078,-998.535,68.848,0.000
1729781600.770,-124.023,62.988,-1000.000,-65.430,0.000
1729781600.774,-108.398,63.477,-986.816,-111.328,0.000
1729781600.778,37.109,74.707,-981.934,-20.508,0.000
1729781600.782,117.676,57.617,-991.211,68.848,0.000
1729781600.786,29.297,52.734,-999.023,56.152,0.000
1729781600.790,-97.168,63.965,-988.281,-53.223,0.000
1729781600.794,-103.516,69.336,-981.934,-118.164,0.000
1729781600.798,27.832,66.895,-983.398,-40.527,0.000
1729781600.801,139.160,55.176,-979.004,78.613,0.000
1729781600.805,93.262,40.527,-979.004,94.238,0.000
1729781600.809,-137.695,-55.176,-982.910,-93.750,0.000
1729781600.813,-316.406,-189.453,-988.770,-295.410,0.000
1729781600.817,-250.000,-235.840,-978.516,-292.480,0.000
1729781600.821,-132.324,-218.750,-965.332,-187.012,0.000
1729781600.825,-160.156,-233.398,-970.703,-166.016,0.000
1729781600.829,-312.500,-249.512,-977.539,-253.418,0.000
1729781600.833,-364.746,-233.887,-984.375,-322.266,0.000
1729781600.837,-260.254,-254.883,-958.496,-327.637,0.000
1729781600.841,-131.836,-238.770,-931.152,-221.191,0.000
1729781600.844,-121.094,-217.773,-939.941,-149.414,0.000
1729781600.848,-236.816,-209.473,-928.223,-221.191,0.000
1729781600.852,-290.039,-172.363,-920.410,-285.645,0.000
1729781600.856,-222.656,-181.152,-933.594,-271.973,0.000
1729781600.860,-230.469,-307.617,-951.660,-301.758,0.000
1729781600.864,-285.645,-359.863,-906.738,-336.914,0.000
1729781600.868,-395.020,-339.355,-871.582,-394.043,0.000
1729781600.872,-491.699,-377.930,-896.484,-493.164,0.000
1729781600.876,-415.039,-389.648,-947.266,-475.098,0.000
1729781600.880,-234.375,-351.562,-918.457,-341.309,0.000
1729781600.884,-181.152,-318.359,-854.492,-266.602,0.000
1729781600.887,-335.449,-342.773,-855.957,-336.426,0.000
1729781600.891,-504.395,-378.906,-933.105,-485.352,0.000
1729781600.895,-417.969,-336.426,-884.766,-487.305,0.000
1729781600.899,-114.746,-217.773,-817.871,-234.863,0.000
1729781600.903,41.016,-130.371,-835.449,-40.039,0.000
1729781600.907,-28.320,-90.820,-827.148,-50.293,0.000
1729781600.911,-127.930,-62.500,-820.801,-130.371,0.000
1729781600.915,-93.262,-55.176,-830.566,-152.344,0.000
1729781600.919,54.688,-50.293,-839.844,-76.172,0.000
1729781600.923,124.023,-43.457,-854.492,19.043,0.000
1729781600.927,14.648,-71.289,-835.938,-16.602,0.000
1729781600.930,-108.887,-66.895,-808.105,-134.277,0.000
1729781600.934,-66.895,-22.949,-840.332,-140.625,0.000
1729781600.938,64.453,-30.762,-839.355,-41.992,0.000
1729781600.942,143.555,-62.012,-782.715,37.598,0.000
1729781600.946,97.168,-31.738,-807.129,42.480,0.000
